#  Table ccd.tab  Fri 15:08:38 04-Apr-97
#
#      WAVELENGTH      THROUGHPUT
#       angstroms                
#
            1150.    8.125043E-21
         1151.299    9.032134E-21
         1152.599    9.972720E-21
         1153.901    1.094665E-20
         1155.204    1.195412E-20
         1156.508    1.299535E-20
         1157.814    1.407023E-20
         1159.122    1.517909E-20
         1160.432    1.624063E-20
         1161.742    1.716169E-20
         1163.053    1.810529E-20
         1164.367    1.907229E-20
         1165.682    2.006235E-20
         1166.999    2.107609E-20
         1168.317    2.211247E-20
         1169.636    2.317221E-20
         1170.957    2.436450E-20
         1172.279    2.562271E-20
         1173.604    2.690753E-20
         1174.929    2.821704E-20
         1176.256    2.955217E-20
         1177.584    3.091286E-20
         1178.914    3.229932E-20
         1180.246    3.370396E-20
         1181.578    3.509778E-20
         1182.913    3.651215E-20
         1184.249    3.794728E-20
         1185.586    3.940308E-20
         1186.925    4.087962E-20
         1188.266    4.237712E-20
         1189.608    4.389562E-20
         1190.951    4.549806E-20
         1192.296    4.714096E-20
         1193.642    4.879714E-20
         1194.991    5.046723E-20
         1196.341    5.214991E-20
         1197.691    5.384491E-20
         1199.044    5.555426E-20
         1200.398    5.735054E-20
         1201.754    5.933859E-20
         1203.111    6.133955E-20
          1204.47    6.335455E-20
          1205.83    6.538341E-20
         1207.191    6.742526E-20
         1208.555    6.948327E-20
          1209.92    7.155437E-20
         1211.287    7.405828E-20
         1212.655    7.660606E-20
         1214.024    7.917214E-20
         1215.395    8.175638E-20
         1216.768    8.435926E-20
         1218.142    8.698037E-20
         1219.518    8.961978E-20
         1220.895    9.253286E-20
         1222.274    9.560449E-20
         1223.654    9.869372E-20
         1225.036    1.018044E-19
         1226.419    1.049358E-19
         1227.804    1.080875E-19
         1229.192    1.112613E-19
          1230.58    1.146853E-19
          1231.97    1.184516E-19
          1233.36    1.222366E-19
         1234.753    1.260431E-19
         1236.148    1.298697E-19
         1237.544    1.337186E-19
         1238.942    1.375857E-19
         1240.341    1.414485E-19
         1241.742    1.452503E-19
         1243.144    1.490649E-19
         1244.548    1.528982E-19
         1245.954    1.567443E-19
         1247.361    1.606052E-19
          1248.77    1.644811E-19
          1250.18    1.684426E-19
         1251.592    1.729018E-19
         1253.005    1.773728E-19
          1254.42    1.818556E-19
         1255.837    1.863503E-19
         1257.255    1.908572E-19
         1258.676    1.953780E-19
         1260.096    1.998947E-19
          1261.52    2.042611E-19
         1262.944    2.086346E-19
          1264.37    2.130151E-19
         1265.799    2.174049E-19
         1267.229    2.218000E-19
          1268.66    2.262020E-19
         1270.092    2.306454E-19
         1271.526    2.356308E-19
         1272.963    2.406229E-19
           1274.4    2.456170E-19
          1275.84    2.506155E-19
         1277.281    2.556177E-19
         1278.723    2.606244E-19
         1280.167    2.656385E-19
         1281.613    2.706804E-19
          1283.06    2.757242E-19
         1284.509    2.807699E-19
          1285.96    2.858167E-19
         1287.412    2.908654E-19
         1288.866    2.959160E-19
         1290.322    3.011128E-19
         1291.779    3.068207E-19
         1293.238    3.125292E-19
         1294.699    3.182410E-19
          1296.16    3.239471E-19
         1297.624    3.296561E-19
          1299.09    3.353655E-19
         1300.557    3.411028E-19
         1302.026    3.468877E-19
         1303.497    3.526694E-19
         1304.969    3.584505E-19
         1306.443    3.642315E-19
         1307.917    3.700064E-19
         1309.395    3.757921E-19
         1310.874    3.820051E-19
         1312.354    3.885177E-19
         1313.836    3.950310E-19
          1315.32    4.015439E-19
         1316.805    4.080563E-19
         1318.293    4.145693E-19
         1319.781    4.210818E-19
         1321.272    4.276302E-19
         1322.764    4.341852E-19
         1324.258    4.407402E-19
         1325.753    4.472963E-19
         1327.251    4.538522E-19
          1328.75    4.604085E-19
          1330.25    4.670884E-19
         1331.752    4.743854E-19
         1333.256    4.816831E-19
         1334.761    4.889772E-19
          1336.27    4.962797E-19
         1337.778    5.035757E-19
         1339.289    5.108787E-19
         1340.802    5.181314E-19
         1342.316    5.253415E-19
         1343.832    5.325525E-19
         1345.349    5.397602E-19
         1346.869    5.469757E-19
          1348.39    5.541876E-19
         1349.913    5.614005E-19
         1351.438    5.692924E-19
         1352.964    5.772259E-19
         1354.492    5.851597E-19
         1356.021    5.930939E-19
         1357.553    6.010282E-19
         1359.086    6.089630E-19
         1360.621    6.169679E-19
         1362.157    6.250751E-19
         1363.696    6.331825E-19
         1365.236    6.412900E-19
         1366.778    6.493984E-19
         1368.321    6.575067E-19
         1369.866    6.656152E-19
         1371.413    6.744119E-19
         1372.963    6.832786E-19
         1374.513    6.921368E-19
         1376.065    7.009991E-19
         1377.619    7.098618E-19
         1379.175    7.187244E-19
         1380.733    7.276103E-19
         1382.293    7.365129E-19
         1383.854    7.454149E-19
         1385.416    7.543123E-19
          1386.98    7.632145E-19
         1388.547    7.721203E-19
         1390.116    7.810771E-19
         1391.685    7.907342E-19
         1393.257    8.003915E-19
         1394.831    8.100470E-19
         1396.406    8.197028E-19
         1397.983    8.293573E-19
         1399.562    8.390106E-19
         1401.142    8.435307E-19
         1402.725    8.460792E-19
         1404.309    8.486267E-19
         1405.895    8.511733E-19
         1407.482    8.537193E-19
         1409.072    8.562643E-19
         1410.663    8.588265E-19
         1412.257    8.614139E-19
         1413.852    8.639988E-19
         1415.448    8.665814E-19
         1417.047    8.691642E-19
         1418.647    8.717456E-19
          1420.25    8.741154E-19
         1421.854    8.753349E-19
         1423.459    8.765532E-19
         1425.067    8.777704E-19
         1426.676    8.789859E-19
         1428.288    8.802011E-19
         1429.901    8.814149E-19
         1431.516    8.826085E-19
         1433.132    8.837995E-19
         1434.751    8.849891E-19
         1436.371    8.861771E-19
         1437.993    8.873638E-19
         1439.617    8.885488E-19
         1441.243    8.896650E-19
         1442.871    8.907586E-19
         1444.501    8.918510E-19
         1446.131    8.929404E-19
         1447.765    8.940289E-19
           1449.4    8.951154E-19
         1451.036    8.961756E-19
         1452.676    8.972202E-19
         1454.317    8.982620E-19
         1455.959    8.993018E-19
         1457.602    9.003388E-19
         1459.249    9.013743E-19
         1460.897    9.024451E-19
         1462.547    9.035437E-19
         1464.199    9.046396E-19
         1465.852    9.057328E-19
         1467.508    9.068233E-19
         1469.165    9.079113E-19
         1470.824    9.089692E-19
         1472.485    9.099968E-19
         1474.148    9.110210E-19
         1475.813    9.120420E-19
          1477.48    9.130598E-19
         1479.148    9.140743E-19
         1480.819    9.149355E-19
         1482.491    9.156372E-19
         1484.166    9.163355E-19
         1485.842    9.170301E-19
          1487.52    9.177214E-19
           1489.2    9.184084E-19
         1490.881    9.190476E-19
         1492.565    9.196421E-19
         1494.251    9.202324E-19
         1495.939    9.208189E-19
         1497.628    9.214008E-19
          1499.32    9.219783E-19
         1501.012    9.229631E-19
         1502.707    9.242193E-19
         1504.404    9.254694E-19
         1506.104    9.267137E-19
         1507.805    9.279511E-19
         1509.508    9.291821E-19
         1511.213    9.303756E-19
         1512.918    9.315490E-19
         1514.628    9.327163E-19
         1516.339    9.338760E-19
         1518.051    9.350284E-19
         1519.765    9.361738E-19
         1521.482    9.360141E-19
           1523.2    9.356442E-19
          1524.92    9.352696E-19
         1526.642    9.348907E-19
         1528.366    9.345074E-19
         1530.092    9.341177E-19
         1531.821    9.336944E-19
          1533.55    9.332667E-19
         1535.282    9.328340E-19
         1537.016    9.323966E-19
         1538.752    9.319545E-19
          1540.49    9.315518E-19
          1542.23    9.312577E-19
         1543.972    9.309583E-19
         1545.715    9.306539E-19
          1547.46    9.303438E-19
         1549.209    9.300283E-19
         1550.958    9.800325E-17
          1552.71    2.749255E-16
         1554.464    4.514035E-16
         1556.219    6.274353E-16
         1557.977    8.030306E-16
         1559.736    9.781634E-16
         1561.497    1.650918E-13
         1563.261    3.577010E-13
         1565.026    5.498186E-13
         1566.794    7.414688E-13
         1568.563    9.326358E-13
         1570.335    4.084201E-11
         1572.108    2.510418E-10
         1573.884    4.607434E-10
         1575.662    6.700592E-10
         1577.441    8.787853E-10
         1579.222     1.086892E-9
         1581.005     1.303046E-7
         1582.791     3.589993E-7
         1584.579     5.873295E-7
         1586.369     8.150273E-7
          1588.16     1.042246E-6
         1589.954     1.268953E-6
         1591.749     2.442326E-4
         1593.547     4.933606E-4
         1595.347     7.418967E-4
         1597.149     9.899569E-4
         1598.952     0.001237522
         1600.758     0.001390015
         1602.566     0.001411534
         1604.376     0.001433012
         1606.188     0.001454451
         1608.001     0.001475851
         1609.817      0.00149721
         1611.636     0.001520821
         1613.456     0.001544631
         1615.278      0.00156842
         1617.102     0.001592175
         1618.928       0.0016159
         1620.757     0.001641082
         1622.588     0.001668317
          1624.42     0.001695534
         1626.254     0.001722715
          1628.09     0.001749887
          1629.93     0.001777052
         1631.771     0.001807369
         1633.614     0.001837809
         1635.458     0.001868243
         1637.305     0.001898675
         1639.154     0.001929099
         1641.005     0.001961977
         1642.859      0.00199698
         1644.714     0.002031985
         1646.572     0.002067009
          1648.43     0.002102035
         1650.293     0.002135898
         1652.156     0.002163249
         1654.022     0.002190636
          1655.89     0.002218059
          1657.76     0.002245514
         1659.633     0.002273005
         1661.507      0.00230268
         1663.383     0.002332938
         1665.261     0.002363237
         1667.142     0.002393626
         1669.025     0.002424057
         1670.911     0.002455909
         1672.796     0.002489227
         1674.685     0.002522662
         1676.578     0.002556198
         1678.471     0.002589801
         1680.367     0.002624061
         1682.265     0.002660712
         1684.165     0.002697475
         1686.067     0.002734346
          1687.97     0.002771309
         1689.877      0.00280842
         1691.786     0.002848454
         1693.696     0.002888816
         1695.609     0.002929319
         1697.524     0.002969958
         1699.441     0.003010733
          1701.36     0.003048057
         1703.282     0.003084036
         1705.205     0.003120148
         1707.131     0.003156392
         1709.059     0.003192768
         1710.989     0.003230446
         1712.922     0.003269384
         1714.856     0.003308474
         1716.793     0.003347718
         1718.731     0.003387114
         1720.673     0.003427484
         1722.616     0.003469485
         1724.561     0.003511679
         1726.509     0.003554047
         1728.459     0.003596606
         1730.411     0.003639793
         1732.365      0.00368502
         1734.321      0.00373044
          1736.28     0.003776052
         1738.241     0.003821856
         1740.204       0.0038681
         1742.169     0.003916675
         1744.137      0.00396546
         1746.107      0.00401448
         1748.078     0.004063663
         1750.052     0.004112863
         1752.029     0.004154254
         1754.007      0.00419582
         1755.988     0.004237561
         1757.973     0.004279522
         1759.957     0.004321577
         1761.944     0.004365323
         1763.934     0.004409291
         1765.926     0.004453445
         1767.922      0.00449783
         1769.919     0.004542361
         1771.918     0.004588597
         1773.917     0.004635049
          1775.92     0.004681744
         1777.928     0.004728685
         1779.936     0.004775783
         1781.945     0.004824688
         1783.958     0.004873908
         1785.973     0.004923313
          1787.99     0.004972932
         1790.008      0.00502275
         1792.031     0.005074597
         1794.055     0.005126647
         1796.081     0.005178922
         1798.108     0.005231397
         1800.139     0.005283682
         1802.173     0.005330162
         1804.208     0.005376814
         1806.246     0.005423661
         1808.286     0.005470708
         1810.328     0.005518164
         1812.372     0.005566938
         1814.419     0.005615917
         1816.467     0.005665079
         1818.519     0.005714497
         1820.573     0.005764487
         1822.629     0.005815689
         1824.688      0.00586711
         1826.747     0.005918724
         1828.811     0.005970611
         1830.877     0.006023299
         1832.944     0.006077042
         1835.014     0.006131018
         1837.087     0.006185223
         1839.161     0.006239659
         1841.238     0.006295223
         1843.318     0.006351634
           1845.4      0.00640829
         1847.484     0.006465184
          1849.57     0.006522323
         1851.659     0.006576608
          1853.75     0.006630312
         1855.843     0.006684243
         1857.939     0.006738402
         1860.038     0.006792811
         1862.138     0.006848709
         1864.242      0.00690487
         1866.347     0.006961214
         1868.454      0.00701782
         1870.564     0.007075022
         1872.677     0.007133445
         1874.793     0.007192139
          1876.91     0.007251056
          1879.03     0.007310219
         1881.151     0.007370355
         1883.275     0.007431405
         1885.403     0.007492746
         1887.532     0.007554315
         1889.664     0.007616145
         1891.798     0.007679442
         1893.935     0.007743235
         1896.073     0.007807299
         1898.215     0.007871631
         1900.359     0.007935417
         1902.505     0.007995374
         1904.653     0.008055578
         1906.804     0.008116031
         1908.958     0.008176734
         1911.114     0.008238292
         1913.272     0.008300675
         1915.432     0.008363316
         1917.597     0.008426247
         1919.762     0.008489406
         1921.929     0.008553888
           1924.1     0.008618804
         1926.273     0.008683988
         1928.449     0.008749473
         1930.627     0.008815555
         1932.807      0.00888281
          1934.99     0.008950343
         1937.174     0.009018122
         1939.363     0.009086249
         1941.553     0.009155548
         1943.746     0.009225516
         1945.941     0.009295775
         1948.139      0.00936632
         1950.339     0.009436481
         1952.542     0.009503196
         1954.747     0.009570178
         1956.954      0.00963743
         1959.164     0.009704954
         1961.378     0.009773473
         1963.592     0.009842621
         1965.809     0.009912081
          1968.03     0.009981822
         1970.252      0.01005197
         1972.478      0.01012344
         1974.706      0.01019517
         1976.936      0.01026719
         1979.168      0.01033946
         1981.403      0.01041277
         1983.641      0.01048686
         1985.882      0.01056121
         1988.124      0.01063585
          1990.37      0.01071099
         1992.617      0.01078743
         1994.868      0.01086419
         1997.121      0.01094125
         1999.376      0.01101861
         2001.634      0.01110604
         2003.895      0.01119758
         2006.158      0.01128949
         2008.423      0.01138178
         2010.692      0.01147502
         2012.962      0.01156995
         2015.236      0.01166528
         2017.513      0.01176104
          2019.79      0.01185711
         2022.071      0.01195535
         2024.354      0.01205417
         2026.641       0.0121534
         2028.931      0.01225309
         2031.221      0.01235412
         2033.516      0.01245658
         2035.812      0.01255941
          2038.11      0.01266261
         2040.413       0.0127667
         2042.716      0.01287276
         2045.024      0.01297935
         2047.334      0.01308633
         2049.646      0.01319376
         2051.961      0.01328561
         2054.277      0.01337489
         2056.598       0.0134646
         2058.921      0.01355461
         2061.246      0.01364555
         2063.574      0.01373733
         2065.904      0.01382946
         2068.238      0.01392195
         2070.573      0.01401505
         2072.912      0.01410929
         2075.253       0.0142039
         2077.596      0.01429885
         2079.944      0.01439422
         2082.292       0.0144909
         2084.643        0.014588
         2086.997      0.01468548
         2089.354      0.01478332
         2091.715      0.01488235
         2094.076      0.01498195
         2096.442        0.015082
         2098.809      0.01518234
         2101.179      0.01527941
         2103.553      0.01537314
         2105.927      0.01546712
         2108.307      0.01556153
         2110.688      0.01565645
         2113.072       0.0157522
         2115.458      0.01584831
         2117.846       0.0159447
         2120.239       0.0160416
         2122.633      0.01613943
         2125.029      0.01623755
          2127.43      0.01633612
         2129.832      0.01643493
         2132.238       0.0165348
         2134.646      0.01663501
         2137.056      0.01673553
         2139.472      0.01683654
         2141.885      0.01693818
         2144.306      0.01704047
         2146.727      0.01714305
          2149.15      0.01724594
          2151.58      0.01734656
          2154.01      0.01744594
         2156.442      0.01754566
         2158.878       0.0176457
         2161.313       0.0177462
         2163.757       0.0178474
         2166.199      0.01794878
         2168.647      0.01805061
         2171.096      0.01815287
         2173.548      0.01825566
         2176.002      0.01835879
         2178.458       0.0184622
          2180.92      0.01856615
         2183.383      0.01867059
         2185.849      0.01877534
         2188.317      0.01888043
         2190.789      0.01898593
         2193.263      0.01909197
          2195.74      0.01919832
         2198.219      0.01930501
         2200.702      0.01941469
         2203.187      0.01953147
         2205.676      0.01964862
         2208.167      0.01976613
          2210.66      0.01988412
         2213.157      0.02000284
         2215.656      0.02012191
         2218.158      0.02024134
         2220.664      0.02036124
